#DataThief C:\Users\bwc\Desktop\yag_ce spectra.png Tuesday 19-Sep-2017 12:49:48 PM
455.674, 0.0126
456.5436, 0.0126
457.4131, 0.0126
458.2827, 0.0126
459.1522, 0.0126
460.0218, 0.0126
460.8914, 0.0126
461.761, 0.0126
462.6305, 0.0126
463.5001, 0.0126
464.3697, 0.0126
465.2392, 0.0126
466.1088, 0.0126
466.9784, 0.0126
467.8479, 0.0126
468.7175, 0.0126
469.587, 0.0126
470.4566, 0.0126
471.3262, 0.0126
472.1957, 0.0126
473.0653, 0.0126
473.9348, 0.0126
474.8044, 0.0126
475.674, 0.0126
476.5436, 0.0126
477.4131, 0.0126
478.2827, 0.0126
479.1522, 0.0126
480.0218, 0.0126
480.8987, 0.0167
481.7682, 0.0167
482.6378, 0.0167
483.5074, 0.0167
484.3769, 0.0167
485.2465, 0.0167
486.1161, 0.0167
486.9856, 0.0167
487.8552, 0.0167
488.7248, 0.0167
489.5943, 0.0167
490.4639, 0.0167
491.3335, 0.0167
492.203, 0.0167
493.0726, 0.0167
493.9494, 0.0209
494.819, 0.0209
495.6886, 0.0209
496.5581, 0.0209
497.435, 0.0251
498.3045, 0.0251
499.1814, 0.0293
500.0582, 0.0335
500.9278, 0.0335
501.8046, 0.0377
502.6815, 0.0418
502.6886, 0.046
502.696, 0.0502
503.5729, 0.0544
503.58, 0.0586
503.5874, 0.0628
503.5947, 0.0669
504.4715, 0.0711
504.4788, 0.0753
504.4861, 0.0795
504.4934, 0.0836
505.3702, 0.0879
505.3775, 0.0921
505.3848, 0.0962
505.392, 0.1004
505.3993, 0.1046
506.2762, 0.1088
506.2833, 0.113
506.2907, 0.1172
506.298, 0.1213
507.1748, 0.1255
507.1821, 0.1297
507.1894, 0.1339
507.1967, 0.1381
508.0735, 0.1423
508.0808, 0.1464
508.088, 0.1506
508.0953, 0.1548
508.1026, 0.159
508.1099, 0.1632
508.9867, 0.1674
508.994, 0.1715
509.0013, 0.1757
509.0086, 0.1799
509.0158, 0.1841
509.0231, 0.1883
509.8999, 0.1925
509.9072, 0.1967
509.9144, 0.2008
509.9218, 0.205
509.9291, 0.2092
509.9363, 0.2134
510.8132, 0.2176
510.8204, 0.2218
510.8277, 0.2259
510.835, 0.2301
510.8423, 0.2343
510.8496, 0.2385
510.8568, 0.2427
511.7337, 0.2469
511.7409, 0.251
511.7482, 0.2551
511.7555, 0.2594
511.7628, 0.2636
511.7701, 0.2678
511.7772, 0.272
512.6542, 0.2762
512.6615, 0.2803
512.6686, 0.2845
512.676, 0.2887
512.6833, 0.2929
512.6905, 0.2971
512.6978, 0.3013
512.705, 0.3054
513.5819, 0.3096
513.5892, 0.3138
513.5965, 0.318
513.6038, 0.3222
513.6111, 0.3264
513.6183, 0.3305
513.6256, 0.3347
513.6329, 0.3389
514.5097, 0.3431
514.517, 0.3473
514.5243, 0.3515
514.5316, 0.3556
514.5388, 0.3598
514.5461, 0.3639
514.5534, 0.3682
514.5607, 0.3724
515.4375, 0.3766
515.4447, 0.3808
515.4521, 0.3849
515.4593, 0.3891
515.4666, 0.3933
515.4739, 0.3975
515.4812, 0.4017
515.4884, 0.4059
515.4957, 0.41
516.3726, 0.4142
516.3798, 0.4184
516.3871, 0.4226
516.3944, 0.4268
516.4017, 0.431
516.409, 0.4351
516.4162, 0.4393
516.4235, 0.4435
516.4308, 0.4477
517.3075, 0.4519
517.3149, 0.4561
517.3222, 0.4603
517.3295, 0.4644
517.3367, 0.4686
517.3439, 0.4727
517.3513, 0.4769
517.3586, 0.4812
518.2354, 0.4854
518.2427, 0.4895
518.25, 0.4937
518.2572, 0.4979
518.2645, 0.5021
518.2718, 0.5063
518.2791, 0.5105
518.2863, 0.5146
518.2936, 0.5188
519.1705, 0.523
519.1777, 0.5272
519.185, 0.5314
519.1923, 0.5356
519.1996, 0.5396
519.2068, 0.5439
519.2141, 0.5481
519.2214, 0.5523
519.2287, 0.5565
520.1055, 0.5607
520.1128, 0.5649
520.1201, 0.569
520.1273, 0.5732
520.1346, 0.5774
520.1419, 0.5816
520.1492, 0.5857
520.1564, 0.5899
521.0333, 0.5941
521.0406, 0.5983
521.0478, 0.6025
521.0551, 0.6067
521.0624, 0.6109
521.0697, 0.6151
521.077, 0.6192
521.0842, 0.6234
521.9611, 0.6276
521.9683, 0.6318
521.9756, 0.636
521.9828, 0.6402
521.9902, 0.6444
521.9975, 0.6484
522.0047, 0.6526
522.012, 0.6569
522.8888, 0.6611
522.8961, 0.6653
522.9034, 0.6695
522.9106, 0.6736
522.918, 0.6778
522.9252, 0.682
522.9325, 0.6862
522.9398, 0.6904
523.8166, 0.6945
523.8239, 0.6987
523.8312, 0.7029
523.8385, 0.7071
523.8457, 0.7113
523.853, 0.7155
523.8603, 0.7197
524.737, 0.7238
524.7444, 0.728
524.7517, 0.7322
524.759, 0.7364
524.7662, 0.7406
524.7734, 0.7448
525.6503, 0.749
525.6576, 0.753
525.6649, 0.7572
525.6722, 0.7614
525.6795, 0.7657
525.6867, 0.7699
525.694, 0.7741
526.5709, 0.7782
526.5781, 0.7824
526.5854, 0.7866
526.5927, 0.7908
526.6, 0.795
526.6072, 0.7992
527.4841, 0.8033
527.4914, 0.8075
527.4986, 0.8117
527.5059, 0.8159
527.5131, 0.8201
528.39, 0.8243
528.3973, 0.8285
528.4046, 0.8326
528.4119, 0.8368
528.4191, 0.841
528.4264, 0.8452
529.3033, 0.8494
529.3105, 0.8536
529.3178, 0.8577
529.3251, 0.8618
529.3324, 0.866
530.2092, 0.8702
530.2165, 0.8745
530.2238, 0.8787
530.231, 0.8828
530.2383, 0.887
530.2456, 0.8912
530.2529, 0.8954
531.1297, 0.8996
531.137, 0.9038
531.1443, 0.9079
532.0211, 0.9121
532.0284, 0.9163
532.0357, 0.9205
532.9052, 0.9205
532.9125, 0.9247
533.7893, 0.9289
533.7966, 0.9331
533.8039, 0.9372
534.6806, 0.9414
534.688, 0.9456
534.6953, 0.9498
535.5721, 0.954
535.5794, 0.9582
535.5867, 0.9623
536.4635, 0.9665
536.4708, 0.9707
536.4781, 0.9748
537.3549, 0.979
538.2245, 0.979
539.1013, 0.9832
539.9782, 0.9874
539.9854, 0.9916
540.8622, 0.9958
541.7319, 0.9958
542.6087, 1.0
543.4855, 1.0042
544.3551, 1.0042
545.2247, 1.0042
546.0942, 1.0042
546.9638, 1.0042
547.8406, 1.0084
548.7102, 1.0084
549.5798, 1.0084
550.4493, 1.0084
551.3189, 1.0084
552.1885, 1.0084
553.058, 1.0084
553.9276, 1.0084
554.7899, 1.0042
555.6595, 1.0042
556.5217, 1.0
557.3913, 1.0
558.2609, 1.0
559.1304, 1.0
560.0, 1.0
560.8622, 0.9958
561.7319, 0.9958
562.6014, 0.9958
563.4637, 0.9916
564.3333, 0.9916
565.2028, 0.9916
566.0651, 0.9874
566.9346, 0.9874
567.797, 0.9832
568.6665, 0.9832
569.5361, 0.9832
570.3984, 0.979
571.268, 0.979
572.1303, 0.9748
572.9925, 0.9707
573.862, 0.9707
574.7244, 0.9665
575.5867, 0.9623
576.449, 0.9582
577.3113, 0.954
578.1735, 0.9498
579.0358, 0.9456
579.8981, 0.9414
580.7604, 0.9372
581.6227, 0.9331
582.4849, 0.9289
583.3473, 0.9247
584.2096, 0.9205
585.0719, 0.9163
585.0646, 0.9121
585.9268, 0.9079
586.7892, 0.9038
587.6514, 0.8996
587.6442, 0.8954
588.5065, 0.8912
589.3687, 0.887
589.3615, 0.8828
590.2238, 0.8787
591.086, 0.8745
591.0788, 0.8702
591.9411, 0.866
591.9338, 0.8618
592.8033, 0.8618
592.7961, 0.8577
592.7888, 0.8536
593.6511, 0.8494
594.5133, 0.8452
594.5061, 0.841
595.3684, 0.8368
595.3611, 0.8326
596.2234, 0.8285
597.0857, 0.8243
597.0784, 0.8201
597.9407, 0.8159
597.9334, 0.8117
598.7957, 0.8075
598.7884, 0.8033
599.6507, 0.7992
599.6434, 0.795
600.5057, 0.7908
600.4985, 0.7866
601.3607, 0.7824
601.3535, 0.7782
602.2158, 0.7741
602.2085, 0.7699
603.0708, 0.7657
603.0635, 0.7614
603.9258, 0.7572
603.9184, 0.753
604.7808, 0.749
604.7734, 0.7448
605.6358, 0.7406
605.6284, 0.7364
606.4908, 0.7322
606.4835, 0.728
607.3458, 0.7238
607.3385, 0.7197
607.3313, 0.7155
608.1936, 0.7113
608.1863, 0.7071
609.0486, 0.7029
609.0413, 0.6987
609.9036, 0.6945
609.8963, 0.6904
610.7586, 0.6862
610.7513, 0.682
610.744, 0.6778
611.6063, 0.6736
611.5991, 0.6695
612.4613, 0.6653
613.3235, 0.6611
613.3164, 0.6569
614.1786, 0.6526
615.0409, 0.6484
615.0337, 0.6444
615.8959, 0.6402
615.8887, 0.636
616.751, 0.6318
617.6132, 0.6276
618.4755, 0.6234
618.4683, 0.6192
619.3305, 0.6151
619.3233, 0.6109
620.1856, 0.6067
620.1783, 0.6025
620.171, 0.5983
621.0333, 0.5941
621.026, 0.5899
621.0187, 0.5857
621.0115, 0.5816
621.0042, 0.5774
620.9969, 0.5732
620.9896, 0.569
621.8519, 0.5649
621.8446, 0.5607
621.8374, 0.5565
621.83, 0.5523
621.8228, 0.5481
621.8155, 0.5439
621.8083, 0.5396
622.6705, 0.5356
622.6633, 0.5314
622.656, 0.5272
622.6487, 0.523
622.6414, 0.5188
622.6341, 0.5146
623.4965, 0.5105
623.4892, 0.5063
623.4819, 0.5021
624.3442, 0.4979
624.3369, 0.4937
624.3296, 0.4895
625.1919, 0.4854
625.1846, 0.4812
626.0469, 0.4769
626.9092, 0.4727
627.7715, 0.4686
628.6338, 0.4644
629.4961, 0.4603
630.3657, 0.4603
631.2279, 0.4561
631.2207, 0.4519
632.083, 0.4477
632.9452, 0.4435
632.938, 0.4393
633.8003, 0.4351
633.793, 0.431
634.6553, 0.4268
634.648, 0.4226
635.5103, 0.4184
635.503, 0.4142
636.3653, 0.41
637.2276, 0.4059
637.2203, 0.4017
638.0826, 0.3975
638.0753, 0.3933
638.9376, 0.3891
638.9303, 0.3849
639.7926, 0.3808
639.7852, 0.3766
640.6476, 0.3724
641.5099, 0.3682
641.5026, 0.3639
642.3649, 0.3598
643.2272, 0.3556
643.2199, 0.3515
644.0822, 0.3473
644.0749, 0.3431
644.9372, 0.3389
645.7995, 0.3347
646.6618, 0.3305
647.5241, 0.3264
647.5168, 0.3222
648.3791, 0.318
649.2414, 0.3138
650.1037, 0.3096
650.966, 0.3054
651.8283, 0.3013
652.6905, 0.2971
653.5528, 0.2929
654.4151, 0.2887
655.2774, 0.2845
655.2701, 0.2803
656.1324, 0.2762
656.1252, 0.272
656.1179, 0.2678
656.9802, 0.2636
656.9729, 0.2594
657.8352, 0.2551
657.8279, 0.251
658.6902, 0.2469
658.6829, 0.2427
658.6756, 0.2385
659.5379, 0.2343
659.5307, 0.2301
660.3929, 0.2259
660.3857, 0.2218
661.248, 0.2176
661.2407, 0.2134
662.103, 0.2092
662.0957, 0.205
662.958, 0.2008
663.8203, 0.1967
663.813, 0.1925
664.6753, 0.1883
664.668, 0.1841
665.5303, 0.1799
666.3926, 0.1757
667.2549, 0.1715
668.1172, 0.1674
668.9794, 0.1632
669.849, 0.1632
670.7113, 0.159
671.5809, 0.159
672.4432, 0.1548
673.3054, 0.1506
674.175, 0.1506
675.0373, 0.1464
675.9069, 0.1464
676.7691, 0.1423
677.6314, 0.1381
678.501, 0.1381
679.3633, 0.1339
680.2328, 0.1339
681.0951, 0.1297
681.9647, 0.1297
682.827, 0.1255
683.6893, 0.1213
684.5589, 0.1213
685.4211, 0.1172
686.2907, 0.1172
687.153, 0.113
688.0226, 0.113
688.0153, 0.1088
688.8848, 0.1088
689.7471, 0.1046
690.6167, 0.1046
691.479, 0.1004
692.3486, 0.1004
693.2107, 0.0962
694.0731, 0.0921
694.9426, 0.0921
695.805, 0.0879
696.6745, 0.0879
697.5368, 0.0836
698.4064, 0.0836
699.2687, 0.0795
